Description: CIE 1931 2 Degree Observer, chromaticity co-ordinate y of spectral locus, downloaded from http://cvision.ucsd.edu
Type: Locus
Wavelength Units: Microns

0.360 0.005294
0.365 0.005256
0.370 0.005221
0.375 0.005182
0.380 0.004964
0.385 0.004981
0.390 0.004915
0.395 0.004923
0.400 0.004797
0.405 0.004775
0.410 0.004799
0.415 0.004833
0.420 0.005102
0.425 0.005789
0.430 0.006900
0.435 0.008556
0.440 0.010858
0.445 0.013793
0.450 0.017705
0.455 0.022740
0.460 0.029703
0.465 0.039879
0.470 0.057803
0.475 0.086843
0.480 0.132702
0.485 0.200723
0.490 0.294976
0.495 0.412703
0.500 0.538423
0.505 0.654823
0.510 0.750186
0.515 0.812016
0.520 0.833803
0.525 0.826207
0.530 0.805864
0.535 0.781629
0.540 0.754329
0.545 0.724324
0.550 0.692308
0.555 0.658848
0.560 0.624451
0.565 0.589607
0.570 0.554714
0.575 0.520202
0.580 0.486591
0.585 0.454434
0.590 0.424232
0.595 0.396497
0.600 0.372491
0.605 0.351395
0.610 0.334011
0.615 0.319747
0.620 0.308342
0.625 0.299301
0.630 0.292027
0.635 0.285929
0.640 0.280935
0.645 0.276948
0.650 0.274008
0.655 0.271728
0.660 0.270031
0.665 0.268911
0.670 0.268007
0.675 0.267281
0.680 0.266583
0.685 0.265953
0.690 0.265610
0.695 0.265408
0.700 0.265310
0.705 0.265310
0.710 0.265310
0.715 0.265452
0.720 0.265310
0.725 0.265310
0.730 0.265310
0.735 0.265310
0.740 0.265310
0.745 0.265310
0.750 0.265310
0.755 0.265310
0.760 0.265310
0.765 0.265310
0.770 0.265310
0.775 0.265310
0.780 0.265310
0.785 0.265310
0.790 0.265310
0.795 0.265310
0.800 0.265310
0.805 0.265310
0.810 0.265310
0.815 0.265310
0.820 0.265310
0.825 0.265310
0.830 0.265310
