Description: y_bar Component : CIE 1964 10 Degree Observer at 1 nm intervals from 360 to 830 nm, from ISO/CIE 10527 Table 2, downloaded from: http://cvision.ucsd.edu
Type: Detector
Wavelength Units: Nanometers
360     0.000000013398
361     0.000000020294
362     0.00000003056
363     0.00000004574
364     0.00000006805
365     0.00000010065
366     0.00000014798
367     0.00000021627
368     0.0000003142
369     0.0000004537
370     0.0000006511
371     0.0000009288
372     0.0000013175
373     0.0000018572
374     0.000002602
375     0.000003625
376     0.000005019
377     0.000006907
378     0.000009449
379     0.000012848
380     0.000017364
381     0.000023327
382     0.00003115
383     0.00004135
384     0.00005456
385     0.00007156
386     0.0000933
387     0.00012087
388     0.00015564
389     0.0001992
390     0.0002534
391     0.0003202
392     0.0004024
393     0.0005023
394     0.0006232
395     0.0007685
396     0.0009417
397     0.0011478
398     0.0013903
399     0.0016740
400     0.0020044
401     0.0023860
402     0.0028220
403     0.0033190
404     0.0038800
405     0.0045090
406     0.0052090
407     0.0059850
408     0.0068330
409     0.0077570
410     0.0087560
411     0.0098160
412     0.0109180
413     0.0120580
414     0.0132370
415     0.0144560
416     0.0157170
417     0.0170250
418     0.0183990
419     0.0198480
420     0.0213910
421     0.0229920
422     0.0245980
423     0.0262130
424     0.0278410
425     0.0294970
426     0.0311950
427     0.0329270
428     0.0347380
429     0.0366540
430     0.0386760
431     0.0407920
432     0.0429460
433     0.0451140
434     0.0473330
435     0.0496020
436     0.0519340
437     0.0543370
438     0.0568220
439     0.0593990
440     0.0620770
441     0.0647370
442     0.0672850
443     0.0697640
444     0.0722180
445     0.0747040
446     0.0772720
447     0.0799790
448     0.0828740
449     0.0860000
450     0.0894560
451     0.0929470
452     0.0962750
453     0.0995350
454     0.1028290
455     0.1062560
456     0.1099010
457     0.1138350
458     0.1181670
459     0.1229320
460     0.1282010
461     0.1334570
462     0.1383230
463     0.1430420
464     0.1477870
465     0.1527610
466     0.1581020
467     0.1639410
468     0.1703620
469     0.1774250
470     0.1851900
471     0.1930250
472     0.2003130
473     0.2071560
474     0.2136440
475     0.2199400
476     0.2261700
477     0.2324670
478     0.2390250
479     0.2459970
480     0.2535890
481     0.2618760
482     0.2706430
483     0.2796450
484     0.2886940
485     0.2976650
486     0.3064690
487     0.3150350
488     0.3233350
489     0.3313660
490     0.3391330
491     0.3478600
492     0.3583260
493     0.3700010
494     0.3824640
495     0.3953790
496     0.4084820
497     0.4215880
498     0.4346190
499     0.4476010
500     0.4607770
501     0.4743400
502     0.4882000
503     0.5023400
504     0.5167400
505     0.5313600
506     0.5461900
507     0.5611800
508     0.5762900
509     0.5915000
510     0.6067410
511     0.6221500
512     0.6378300
513     0.6537100
514     0.6696800
515     0.6856600
516     0.7015500
517     0.7172300
518     0.7325700
519     0.7474600
520     0.7617570
521     0.7753400
522     0.7882200
523     0.8004600
524     0.8121400
525     0.8233300
526     0.8341200
527     0.8446000
528     0.8548700
529     0.8650400
530     0.8752110
531     0.8853700
532     0.8953700
533     0.9051500
534     0.9146500
535     0.9238100
536     0.9325500
537     0.9408100
538     0.9485200
539     0.9556000
540     0.9619880
541     0.9675400
542     0.9722300
543     0.9761700
544     0.9794600
545     0.9822000
546     0.9845200
547     0.9865200
548     0.9883200
549     0.9900200
550     0.9917610
551     0.9935300
552     0.9952300
553     0.9967700
554     0.9980900
555     0.9991100
556     0.9997700
557     1.0000000
558     0.9997100
559     0.9988500
560     0.9973400
561     0.9952600
562     0.9927400
563     0.9897500
564     0.9863000
565     0.9823800
566     0.9779800
567     0.9731100
568     0.9677400
569     0.9618900
570     0.9555520
571     0.9486010
572     0.9409810
573     0.9327980
574     0.9241580
575     0.9151750
576     0.9059540
577     0.8966080
578     0.8872490
579     0.8779860
580     0.8689340
581     0.8601640
582     0.8515190
583     0.8429630
584     0.8343930
585     0.8256230
586     0.8167640
587     0.8075440
588     0.7979470
589     0.7878930
590     0.7774050
591     0.7664900
592     0.7553090
593     0.7438450
594     0.7321900
595     0.7203530
596     0.7082810
597     0.6960550
598     0.6836210
599     0.6710480
600     0.6583410
601     0.6455450
602     0.6327180
603     0.6198150
604     0.6068870
605     0.5938780
606     0.5807810
607     0.5676530
608     0.5544900
609     0.5412280
610     0.5279630
611     0.5146340
612     0.5013630
613     0.4881240
614     0.4749350
615     0.4618340
616     0.4488230
617     0.4359170
618     0.4231530
619     0.4105260
620     0.3980570
621     0.3858350
622     0.3739510
623     0.3623110
624     0.3508630
625     0.3395540
626     0.3283090
627     0.3171180
628     0.3059360
629     0.2947370
630     0.2834930
631     0.2722220
632     0.2609900
633     0.2498770
634     0.2389460
635     0.2282540
636     0.2178530
637     0.2077800
638     0.1980720
639     0.1887480
640     0.1798280
641     0.1712850
642     0.1630590
643     0.1551510
644     0.1475350
645     0.1402110
646     0.1331700
647     0.1264000
648     0.1198920
649     0.1136400
650     0.1076330
651     0.1018700
652     0.0963470
653     0.0910630
654     0.0860100
655     0.0811870
656     0.0765830
657     0.0721980
658     0.0680240
659     0.0640520
660     0.0602810
661     0.0566970
662     0.0532920
663     0.0500590
664     0.0469980
665     0.0440960
666     0.0413450
667     0.0387507
668     0.0362978
669     0.0339832
670     0.0318004
671     0.0297395
672     0.0277918
673     0.0259551
674     0.0242263
675     0.0226017
676     0.0210779
677     0.0196505
678     0.0183153
679     0.0170686
680     0.0159051
681     0.0148183
682     0.0138008
683     0.0128495
684     0.0119607
685     0.0111303
686     0.0103555
687     0.0096332
688     0.0089599
689     0.0083324
690     0.0077488
691     0.0072046
692     0.0066975
693     0.0062251
694     0.0057850
695     0.0053751
696     0.0049941
697     0.0046392
698     0.0043093
699     0.0040028
700     0.00371774
701     0.00345262
702     0.00320583
703     0.00297623
704     0.00276281
705     0.00256456
706     0.00238048
707     0.00220971
708     0.00205132
709     0.00190449
710     0.00176847
711     0.00164236
712     0.00152535
713     0.00141672
714     0.00131595
715     0.00122239
716     0.00113555
717     0.00105494
718     0.00098014
719     0.00091066
720     0.00084619
721     0.00078629
722     0.00073068
723     0.00067899
724     0.00063101
725     0.00058644
726     0.00054511
727     0.00050672
728     0.00047111
729     0.00043805
730     0.00040741
731     0.000378962
732     0.000352543
733     0.000328001
734     0.000305208
735     0.000284041
736     0.000264375
737     0.000246109
738     0.000229143
739     0.000213376
740     0.00019873
741     0.000185115
742     0.000172454
743     0.000160678
744     0.00014973
745     0.00013955
746     0.000130086
747     0.00012129
748     0.000113106
749     0.000105501
750     0.000098428
751     0.000091853
752     0.000085738
753     0.000080048
754     0.000074751
755     0.000069819
756     0.000065222
757     0.000060939
758     0.000056942
759     0.000053217
760     0.000049737
761     0.000046491
762     0.000043464
763     0.000040635
764     0.0000380
765     0.0000355405
766     0.0000332448
767     0.0000311006
768     0.000029099
769     0.0000272307
770     0.000025486
771     0.0000238561
772     0.0000223332
773     0.0000209104
774     0.0000195808
775     0.0000183384
776     0.0000171777
777     0.0000160934
778     0.00001508
779     0.0000141336
780     0.000013249
781     0.0000124226
782     0.0000116499
783     0.0000109277
784     0.0000102519
785     0.0000096196
786     0.0000090281
787     0.000008474
788     0.0000079548
789     0.0000074686
790     0.0000070128
791     0.0000065858
792     0.0000061857
793     0.0000058107
794     0.000005459
795     0.0000051298
796     0.0000048206
797     0.0000045312
798     0.0000042591
799     0.0000040042
800     0.00000376473
801     0.00000353995
802     0.00000332914
803     0.00000313115
804     0.00000294529
805     0.00000277081
806     0.00000260705
807     0.00000245329
808     0.00000230894
809     0.00000217338
810     0.00000204613
811     0.00000192662
812     0.0000018144
813     0.00000170895
814     0.00000160988
815     0.00000151677
816     0.00000142921
817     0.00000134686
818     0.00000126945
819     0.00000119662
820     0.00000112809
821     0.00000106368
822     0.00000100313
823     0.00000094622
824     0.00000089263
825     0.00000084216
826     0.00000079464
827     0.00000074978
828     0.00000070744
829     0.00000066748
830     0.0000006297
