Description: CIE 1964 10 Degree Observer, chromaticity co-ordinate y of spectral locus, 1nm intervals, downloaded from http://cvision.ucsd.edu
Type: Locus
Wavelength Units: Nanometers

360    0.019978
361    0.019971
362    0.019966
363    0.019957
364    0.019947
365    0.019938
366    0.019928
367    0.019918
368    0.019908
369    0.019895
370    0.019879
371    0.019861
372    0.019850
373    0.019833
374    0.019811
375    0.019797
376    0.019778
377    0.019756
378    0.019735
379    0.019711
380    0.019685
381    0.019658
382    0.019630
383    0.019602
384    0.019572
385    0.019542
386    0.019513
387    0.019475
388    0.019434
389    0.019392
390    0.019348
391    0.019289
392    0.019241
393    0.019177
394    0.019112
395    0.019044
396    0.018969
397    0.018906
398    0.018839
399    0.018771
400    0.018711
401    0.018653
402    0.018586
403    0.018525
404    0.018463
405    0.018402
406    0.018341
407    0.018291
408    0.018232
409    0.018181
410    0.018134
411    0.018083
412    0.018017
413    0.017943
414    0.017870
415    0.017806
416    0.017756
417    0.017724
418    0.017727
419    0.017766
420    0.017849
421    0.017969
422    0.018114
423    0.018284
424    0.018480
425    0.018708
426    0.018968
427    0.019246
428    0.019560
429    0.019911
430    0.020283
431    0.020682
432    0.021099
433    0.021528
434    0.021990
435    0.022487
436    0.023024
437    0.023610
438    0.024251
439    0.024954
440    0.025725
441    0.026530
442    0.027342
443    0.028181
444    0.029066
445    0.030017
446    0.031053
447    0.032194
448    0.033459
449    0.034861
450    0.036439
451    0.038086
452    0.039740
453    0.041448
454    0.043258
455    0.045217
456    0.047373
457    0.049770
458    0.052467
459    0.055500
460    0.058920
461    0.062497
462    0.066053
463    0.069716
464    0.073612
465    0.077870
466    0.082616
467    0.087978
468    0.094084
469    0.101061
470    0.109040
471    0.117809
472    0.127140
473    0.137089
474    0.147718
475    0.159090
476    0.171265
477    0.184300
478    0.198274
479    0.213231
480    0.229239
481    0.246541
482    0.265234
483    0.285099
484    0.305930
485    0.327537
486    0.349718
487    0.372263
488    0.394980
489    0.417662
490    0.440113
491    0.463082
492    0.487198
493    0.512071
494    0.537309
495    0.562523
496    0.587321
497    0.611313
498    0.634109
499    0.655314
500    0.674543
501    0.692178
502    0.708839
503    0.724485
504    0.739078
505    0.752578
506    0.764952
507    0.776141
508    0.786126
509    0.794857
510    0.802302
511    0.808180
512    0.812377
513    0.815109
514    0.816566
515    0.816976
516    0.816520
517    0.815409
518    0.813848
519    0.812043
520    0.810194
521    0.807952
522    0.804898
523    0.801183
524    0.796891
525    0.792172
526    0.787131
527    0.781897
528    0.776595
529    0.771359
530    0.766282
531    0.761260
532    0.756094
533    0.750797
534    0.745380
535    0.739873
536    0.734269
537    0.728601
538    0.722872
539    0.717100
540    0.711300
541    0.705445
542    0.699506
543    0.693488
544    0.687413
545    0.681278
546    0.675100
547    0.668877
548    0.662630
549    0.656364
550    0.650090
551    0.643787
552    0.637436
553    0.631043
554    0.624621
555    0.618164
556    0.611694
557    0.605214
558    0.598730
559    0.592252
560    0.585787
561    0.579302
562    0.572771
563    0.566211
564    0.559640
565    0.553076
566    0.546536
567    0.540037
568    0.533596
569    0.527232
570    0.520962
571    0.514758
572    0.508587
573    0.502458
574    0.496380
575    0.490359
576    0.484406
577    0.478529
578    0.472736
579    0.467040
580    0.461440
581    0.455918
582    0.450463
583    0.445079
584    0.439781
585    0.434556
586    0.429432
587    0.424410
588    0.419498
589    0.414704
590    0.410040
591    0.405488
592    0.401054
593    0.396729
594    0.392513
595    0.388403
596    0.384396
597    0.380492
598    0.376688
599    0.372981
600    0.369371
601    0.365863
602    0.362461
603    0.359164
604    0.355969
605    0.352873
606    0.349872
607    0.346965
608    0.344149
609    0.341420
610    0.338776
611    0.336223
612    0.333761
613    0.331400
614    0.329127
615    0.326945
616    0.324852
617    0.322840
618    0.320925
619    0.319089
620    0.317340
621    0.315693
622    0.314181
623    0.312779
624    0.311470
625    0.310241
626    0.309055
627    0.307912
628    0.306787
629    0.305662
630    0.304517
631    0.303368
632    0.302243
633    0.301141
634    0.300064
635    0.299011
636    0.297983
637    0.296981
638    0.296004
639    0.295053
640    0.294127
641    0.293218
642    0.292320
643    0.291439
644    0.290581
645    0.289751
646    0.288960
647    0.288209
648    0.287509
649    0.286868
650    0.286287
651    0.285782
652    0.285348
653    0.284979
654    0.284660
655    0.284381
656    0.284132
657    0.283900
658    0.283677
659    0.283451
660    0.283210
661    0.282966
662    0.282728
663    0.282518
664    0.282308
665    0.282113
666    0.281920
667    0.281748
668    0.281580
669    0.281420
670    0.281268
671    0.281125
672    0.280993
673    0.280872
674    0.280760
675    0.280656
676    0.280560
677    0.280471
678    0.280388
679    0.280311
680    0.280237
681    0.280170
682    0.280112
683    0.280065
684    0.280020
685    0.279984
686    0.279950
687    0.279919
688    0.279893
689    0.279861
690    0.279840
691    0.279806
692    0.279779
693    0.279753
694    0.279725
695    0.279704
696    0.279686
697    0.279669
698    0.279656
699    0.279646
700    0.279642
701    0.279641
702    0.279645
703    0.279652
704    0.279662
705    0.279676
706    0.279692
707    0.279710
708    0.279730
709    0.279752
710    0.279773
711    0.279795
712    0.279822
713    0.279850
714    0.279879
715    0.279910
716    0.279944
717    0.279978
718    0.280013
719    0.280051
720    0.280089
721    0.280129
722    0.280171
723    0.280217
724    0.280261
725    0.280306
726    0.280362
727    0.280402
728    0.280454
729    0.280505
730    0.280553
731    0.280604
732    0.280655
733    0.280707
734    0.280760
735    0.280814
736    0.280869
737    0.280924
738    0.280980
739    0.281037
740    0.281094
741    0.281152
742    0.281211
743    0.281270
744    0.281331
745    0.281391
746    0.281452
747    0.281520
748    0.281578
749    0.281643
750    0.281708
751    0.281772
752    0.281840
753    0.281901
754    0.281972
755    0.282041
756    0.282112
757    0.282179
758    0.282252
759    0.282323
760    0.282393
761    0.282464
762    0.282538
763    0.282609
764    0.282681
765    0.282760
766    0.282841
767    0.282911
768    0.282987
769    0.283064
770    0.283141
771    0.283219
772    0.283297
773    0.283376
774    0.283456
775    0.283536
776    0.283616
777    0.283697
778    0.283779
779    0.283861
780    0.283943
781    0.284026
782    0.284110
783    0.284193
784    0.284278
785    0.284363
786    0.284447
787    0.284534
788    0.284620
789    0.284707
790    0.284792
791    0.284880
792    0.284967
793    0.285052
794    0.285140
795    0.285230
796    0.285317
797    0.285408
798    0.285499
799    0.285582
800    0.285675
801    0.285760
802    0.285855
803    0.285946
804    0.286037
805    0.286128
806    0.286220
807    0.286312
808    0.286404
809    0.286496
810    0.286589
811    0.286681
812    0.286776
813    0.286869
814    0.286962
815    0.287057
816    0.287151
817    0.287241
818    0.287339
819    0.287433
820    0.287529
821    0.287623
822    0.287716
823    0.287813
824    0.287905
825    0.288001
826    0.288097
827    0.288191
828    0.288287
829    0.288381
830    0.288477

