Description: ISO 9845, Table 1, Column 5, Raw Global Solar Weights, from ASTM E892, Table 1
Wavelength Units: Microns

0.3000 0.0
0.3050 9.2
0.3100 40.8
0.3150 103.9
0.3200 174.4
0.3250 237.9
0.3300 381.0
0.3350 376.0
0.3400 419.5
0.3450 423.0
0.3500 466.2
0.3600 501.4
0.3700 642.1
0.3800 686.7
0.3900 694.6
0.4000 976.4
0.4100 1116.2
0.4200 1141.1
0.4300 1033.0
0.4400 1254.8
0.4500 1470.7
0.4600 1541.6
0.4700 1523.7
0.4800 1569.3
0.4900 1483.4
0.5000 1492.6
0.5100 1529.0
0.5200 1431.1
0.5300 1515.4
0.5400 1494.5
0.5500 1504.9
0.5700 1447.1
0.5900 1344.9
0.6100 1431.5
0.6300 1382.1
0.6500 1368.4
0.6700 1341.8
0.6900 1089.0
0.7100 1269.8
0.7180 973.7
0.7244 1005.4
0.7400 1167.3
0.7525 1150.6
0.7575 1132.9
0.7625 619.8
0.7675 993.3
0.7800 1090.1
0.8000 1042.4
0.8160 818.4
0.8237 756.5
0.8315 883.2
0.8400 925.1
0.8600 943.4
0.8800 899.4
0.9050 721.4
0.9150 643.3
0.9250 665.3
0.9300 389.0
0.9370 248.9
0.9480 302.2
0.9650 507.7
0.9800 623.0
0.9935 719.7
1.0408 665.5
1.0700 614.4
1.1000 397.6
1.1208 105.8
1.1308 182.2
1.1378 127.4
1.1610 326.7
1.1800 443.3
1.2000 408.2
1.2350 463.1
1.2900 398.1
1.3200 241.1
1.3500 31.3
1.3950 1.5
1.4425 53.7
1.4625 101.3
1.4778 101.7
1.4978 175.5
1.5208 253.1
1.5390 264.3
1.5580 265.8
1.5780 235.7
1.5920 238.4
1.6100 220.4
1.6300 235.6
1.6460 226.3
1.6788 212.5
1.7408 165.3
1.8000 29.6
1.8600 1.9
1.9200 1.2
1.9600 20.4
1.9850 87.8
2.0050 25.8
2.0350 95.9
2.0650 58.2
2.1000 85.9
2.1480 79.2
2.1980 68.9
2.2700 67.7
2.3600 59.8
2.4500 20.4
2.4940 17.8
2.5370 3.1
2.9410 4.2
2.9730 7.3
3.0050 6.3
3.0560 3.1
3.1320 5.2
3.1560 18.7
3.2040 1.3
3.2450 3.1
3.3178 12.6
3.3440 3.1
3.4500 12.8
3.5730 11.5
3.7650 9.4
4.0450 7.2
