Description: ISO 9845, Table 1, Column 8, Normalized Global Solar Weights, from ASTM E892, Table 2
Type: Source
Wavelength Units: Microns

0.3      0 
0.3050   9.5
0.3100   42.3
0.3150   107.8
0.3200   181.0
0.3250   246.0
0.3300   395.3   
0.3350   390.1   
0.3400   435.3   
0.3450   438.9   
0.3500   483.7
0.3600   520.3
0.3700   666.2   
0.3800   712.5   
0.3900   720.7   
0.4000   1013.1
0.4100   1158.2   
0.4200   1184.0   
0.4300   1071.9   
0.4400   1302.0   
0.4500   1526.0
0.4600   1599.6
0.4700   1581.0
0.4800   1628.3   
0.4900   1539.2
0.5000   1548.7
0.5100   1586.5
0.5200   1484.9
0.5300   1572.4
0.5400   1550.7
0.5500   1561.5
0.5700   1501.5
0.5900   1395.5
0.6100   1485.3
0.6300   1434.1
0.6500   1419.9
0.6700   1392.3
0.6900   1130.0
0.7100   1316.7
0.7180   1010.3
0.7244   1043.2
0.7400   1211.2
0.7525   1193.9
0.7575   1175.5
0.7625   643.1
0.7675   1030.7
0.7800   1131.1
0.8000   1081.6
0.8160   849.2
0.8237   785.0
0.8315   916.4
0.8400   959.9
0.8600   978.9
0.8800   933.2
0.9050   748.5
0.9150   667.5
0.9250   690.3
0.9300   403.6
0.9370   258.3
0.9480   313.6
0.9650   526.8
0.9800   646.4
0.9935   746.8
1.0400   690.5
1.0700   637.5
1.1000   412.6
1.1200   108.9
1.1300   189.1
1.1370   132.2
1.1610   339.0
1.1800   460.0
1.2000   423.6
1.2350   480.5
1.2900   413.1
1.3200   250.2
1.3500   32.5
1.3950   1.6
1.4425   55.7
1.4625   105.1
1.4770   105.5
1.4970   182.1
1.5200   262.2
1.5390   274.2
1.5580   275.0
1.5780   244.6
1.5920   247.4
1.6100   228.7
1.6300   244.5
1.6460   234.8
1.6780   220.5
1.7400   171.5
1.8000   30.7
1.8600   2.0
1.9200   1.2
1.9600   21.2
1.9850   91.1
2.0050   26.8
2.0350   99.5
2.0650   60.4
2.1000   89.1
2.1480   82.2
2.1980   71.5
2.2700   70.2
2.3600   62.0
2.4500   21.2
2.4940   18.5
2.5370   3.2
2.9410   4.4
2.9730   7.6
3.0050   6.5
3.0560   3.2
3.1320   5.4
3.1560   19.4
3.2040   1.3
3.2450   3.2
3.3170   13.1
3.3440   3.2
3.4500   13.3
3.5730   11.9
3.7650   9.8
4.0450   7.5
